"Time (min)"	"Temperature (°C)"	"Weight (mg)"
7.77778E-4	26.06810	20.73122
.004166667	26.09367	20.73125
0.01250000	26.11592	20.73130
0.02083334	26.12412	20.73133
0.02916666	26.14180	20.73134
0.03750000	26.16040	20.73138
0.04583334	26.17752	20.73146
0.05416668	26.19519	20.73152
0.06250000	26.21383	20.73153
0.07083332	26.23364	20.73148
0.07916666	26.24614	20.73138
0.08750000	26.26545	20.73127
0.09583332	26.28678	20.73120
0.1041666	26.30735	20.73113
0.1125000	26.33544	20.73106
0.1208333	26.35396	20.73097
0.1291666	26.37144	20.73083
0.1375000	26.39527	20.73071
0.1458333	26.41432	20.73062
0.1541667	26.43440	20.73054
0.1625000	26.45113	20.73048
0.1708334	26.45590	20.73042
0.1791666	26.47871	20.73030
0.1875000	26.50244	20.73025
0.1958334	26.52487	20.73021
0.2041667	26.55896	20.73013
0.2125000	26.58538	20.73003
0.2208333	26.61086	20.72993
0.2291667	26.63840	20.72980
0.2375000	26.65710	20.72969
0.2458334	26.67345	20.72962
0.2541666	26.69962	20.72954
0.2625000	26.73166	20.72942
0.2708334	26.76083	20.72925
0.2791667	26.79651	20.72909
0.2875000	26.83670	20.72896
0.2958333	26.85174	20.72887
0.3041667	26.88592	20.72880
0.3125000	26.92242	20.72870
0.3208333	26.95979	20.72856
0.3291667	26.99350	20.72841
0.3375000	27.03045	20.72826
0.3458333	27.06486	20.72816
0.3541666	27.10786	20.72808
0.3625000	27.14813	20.72798
0.3708334	27.18967	20.72788
0.3791666	27.23076	20.72774
0.3875000	27.28004	20.72758
0.3958334	27.32274	20.72746
0.4041666	27.36622	20.72736
0.4125000	27.41640	20.72722
0.4208333	27.46836	20.72708
0.4291667	27.51396	20.72696
0.4375000	27.56581	20.72680
0.4458333	27.61954	20.72666
0.4541667	27.67210	20.72654
0.4625000	27.72864	20.72641
0.4708334	27.78534	20.72630
0.4791666	27.84274	20.72617
0.4875000	27.90356	20.72604
0.4958334	27.96339	20.72592
0.5041666	28.02560	20.72577
0.5125000	28.08584	20.72561
0.5208332	28.14754	20.72547
0.5291666	28.21737	20.72529
0.5375000	28.28188	20.72511
0.5458334	28.35402	20.72496
0.5541668	28.42179	20.72482
0.5625000	28.49156	20.72467
0.5708332	28.56472	20.72446
0.5791666	28.64010	20.72423
0.5875000	28.71210	20.72405
0.5958334	28.79118	20.72388
0.6041668	28.86598	20.72373
0.6125000	28.94541	20.72360
0.6208334	29.02422	20.72348
0.6291666	29.10812	20.72334
0.6375000	29.18795	20.72316
0.6458332	29.27869	20.72298
0.6541666	29.36190	20.72286
0.6625000	29.45056	20.72276
0.6708334	29.54318	20.72266
0.6791668	29.62790	20.72258
0.6875000	29.72252	20.72246
0.6958332	29.81724	20.72233
0.7041666	29.91270	20.72218
0.7125000	30.01294	20.72198
0.7208334	30.10430	20.72181
0.7291668	30.20230	20.72164
0.7375000	30.29999	20.72145
0.7458334	30.40986	20.72126
0.7541666	30.52164	20.72105
0.7625000	30.62548	20.72083
0.7708332	30.72718	20.72062
0.7791666	30.83726	20.72043
0.7875000	30.94550	20.72024
0.7958334	31.05400	20.72013
0.8041668	31.16511	20.72003
0.8125000	31.27711	20.71991
0.8208332	31.39115	20.71980
0.8291666	31.50768	20.71969
0.8375000	31.62278	20.71960
0.8458334	31.72911	20.71948
0.8541668	31.84664	20.71934
0.8625000	31.96181	20.71919
0.8708332	32.08361	20.71901
0.8791668	32.20540	20.71880
0.8875000	32.33020	20.71856
0.8958332	32.45123	20.71836
0.9041666	32.58062	20.71816
0.9125000	32.70900	20.71794
0.9208334	32.83469	20.71770
0.9291668	32.96740	20.71747
0.9375000	33.09222	20.71728
0.9458332	33.22711	20.71709
0.9541666	33.36239	20.71690
0.9625000	33.49553	20.71676
0.9708334	33.63114	20.71660
0.9791668	33.76582	20.71639
0.9875000	33.90103	20.71624
0.9958332	34.04545	20.71609
1.004167	34.18675	20.71593
1.012500	34.32746	20.71578
1.020833	34.46776	20.71564
1.029167	34.61457	20.71546
1.037500	34.75512	20.71527
1.045834	34.90367	20.71509
1.054167	35.04507	20.71494
1.062500	35.19178	20.71482
1.070833	35.34275	20.71467
1.079166	35.49225	20.71450
1.087500	35.64210	20.71436
1.095833	35.80112	20.71423
1.104166	35.95535	20.71408
1.112500	36.09740	20.71389
1.120833	36.26661	20.71370
1.129167	36.42236	20.71352
1.137500	36.58166	20.71334
1.145834	36.73481	20.71312
1.154167	36.89098	20.71289
1.162500	37.05154	20.71264
1.170834	37.21113	20.71236
1.179167	37.37570	20.71211
1.187500	37.53424	20.71194
1.195833	37.69614	20.71175
1.204166	37.85455	20.71158
1.212500	38.02041	20.71136
1.220833	38.18518	20.71114
1.229166	38.34860	20.71098
1.237500	38.50109	20.71082
1.245833	38.66892	20.71069
1.254167	38.83212	20.71060
1.262500	39.00250	20.71039
1.270834	39.18003	20.71006
1.279167	39.34031	20.70984
1.287500	39.50960	20.70964
1.295834	39.67920	20.70942
1.304167	39.85303	20.70926
1.312500	40.02206	20.70905
1.320833	40.19853	20.70886
1.329166	40.37380	20.70862
1.337500	40.54384	20.70832
1.345833	40.72106	20.70806
1.354166	40.89170	20.70791
1.362500	41.06810	20.70775
1.370833	41.24868	20.70755
1.379167	41.42729	20.70733
1.387500	41.59996	20.70704
1.395834	41.77832	20.70674
1.404167	41.95806	20.70644
1.412500	42.13580	20.70620
1.420834	42.31556	20.70603
1.429167	42.49246	20.70590
1.437500	42.67450	20.70570
1.445833	42.85733	20.70545
1.454166	43.03362	20.70519
1.462500	43.21318	20.70497
1.470833	43.39334	20.70476
1.479166	43.57670	20.70454
1.487500	43.76096	20.70431
1.495833	43.94665	20.70409
1.504167	44.12342	20.70385
1.512500	44.30990	20.70358
1.520834	44.49638	20.70328
1.529167	44.67772	20.70296
1.537500	44.86306	20.70268
1.545834	45.04810	20.70241
1.554167	45.23395	20.70219
1.562500	45.41902	20.70201
1.570833	45.60200	20.70174
1.579166	45.78736	20.70136
1.587500	45.97280	20.70098
1.595833	46.16266	20.70061
1.604166	46.34326	20.70027
1.612500	46.53197	20.70004
1.620833	46.71631	20.69981
1.629167	46.90646	20.69955
1.637500	47.09102	20.69922
1.645834	47.27996	20.69885
1.654167	47.46804	20.69852
1.662500	47.65564	20.69824
1.670834	47.84197	20.69799
1.679166	48.02724	20.69772
1.687500	48.21546	20.69742
1.695834	48.40743	20.69707
1.704166	48.59591	20.69671
1.712500	48.78418	20.69634
1.720833	48.97290	20.69598
1.729166	49.16078	20.69563
1.737500	49.34898	20.69527
1.745833	49.53786	20.69495
1.754167	49.72610	20.69462
1.762500	49.91522	20.69429
1.770834	50.10122	20.69394
1.779167	50.29210	20.69355
1.787500	50.47989	20.69315
1.795834	50.66896	20.69274
1.804166	50.85996	20.69234
1.812500	51.04560	20.69195
1.820834	51.23676	20.69163
1.829166	51.42134	20.69130
1.837500	51.60920	20.69094
1.845833	51.79804	20.69057
1.854166	51.99150	20.69018
1.862500	52.17602	20.68986
1.870833	52.36628	20.68957
1.879167	52.55178	20.68933
1.887500	52.74208	20.68908
1.895834	52.93180	20.68876
1.904167	53.11597	20.68836
1.912500	53.30500	20.68794
1.920834	53.49438	20.68756
1.929166	53.67822	20.68723
1.937500	53.86668	20.68692
1.945834	54.05263	20.68656
1.954166	54.24141	20.68611
1.962500	54.42769	20.68562
1.970833	54.61450	20.68514
1.979166	54.80464	20.68471
1.987500	54.98814	20.68433
1.995833	55.17402	20.68398
2.004166	55.36046	20.68362
2.012500	55.54849	20.68320
2.020833	55.73682	20.68274
2.029167	55.91826	20.68226
2.037500	56.10278	20.68185
2.045834	56.29568	20.68142
2.054166	56.47950	20.68102
2.062500	56.66355	20.68062
2.070834	56.85046	20.68020
2.079166	57.03459	20.67974
2.087500	57.21985	20.67918
2.095833	57.40385	20.67860
2.104167	57.58691	20.67812
2.112500	57.77305	20.67767
2.120834	57.95437	20.67723
2.129166	58.13911	20.67680
2.137500	58.32656	20.67632
2.145833	58.50590	20.67579
2.154167	58.69294	20.67530
2.162500	58.87515	20.67482
2.170834	59.05976	20.67434
2.179166	59.24455	20.67390
2.187500	59.42405	20.67340
2.195834	59.60786	20.67291
2.204166	59.79105	20.67238
2.212500	59.97036	20.67181
2.220833	60.15120	20.67125
2.229167	60.33438	20.67068
2.237500	60.51276	20.67008
2.245834	60.69568	20.66949
2.254166	60.87774	20.66898
2.262500	61.05731	20.66846
2.270833	61.24115	20.66794
2.279167	61.41743	20.66741
2.287500	61.59582	20.66692
2.295834	61.77826	20.66646
2.304166	61.95951	20.66603
2.312500	62.13871	20.66559
2.320834	62.31588	20.66508
2.329166	62.49570	20.66452
2.337500	62.67157	20.66394
2.345833	62.85205	20.66337
2.354167	63.03443	20.66281
2.362500	63.21034	20.66227
2.370834	63.38919	20.66176
2.379166	63.56570	20.66123
2.387500	63.73839	20.66061
2.395833	63.91470	20.66004
2.404167	64.09057	20.65956
2.412500	64.26828	20.65913
2.420834	64.44736	20.65869
2.429166	64.62598	20.65824
2.437500	64.79841	20.65776
2.445834	64.97498	20.65721
2.454166	65.14729	20.65659
2.462500	65.32510	20.65594
2.470833	65.49882	20.65533
2.479167	65.67124	20.65475
2.487500	65.85005	20.65413
2.495834	66.02070	20.65351
2.504166	66.19647	20.65285
2.512500	66.36958	20.65214
2.520833	66.54280	20.65142
2.529167	66.71634	20.65078
2.537500	66.88913	20.65017
2.545834	67.06131	20.64956
2.554166	67.23526	20.64896
2.562500	67.40562	20.64830
2.570834	67.57621	20.64766
2.579166	67.75088	20.64702
2.587500	67.92202	20.64642
2.595833	68.09318	20.64589
2.604167	68.26516	20.64536
2.612500	68.43575	20.64478
2.620834	68.60976	20.64420
2.629166	68.77538	20.64360
2.637500	68.94594	20.64298
2.645833	69.12175	20.64234
2.654167	69.29634	20.64170
2.662500	69.45447	20.64108
2.670834	69.63606	20.64047
2.679166	69.79524	20.63984
2.687500	69.96412	20.63919
2.695834	70.13179	20.63851
2.704166	70.29809	20.63781
2.712500	70.46966	20.63713
2.720833	70.64024	20.63649
2.729167	70.80870	20.63583
2.737500	70.97272	20.63513
2.745834	71.14212	20.63444
2.754166	71.31109	20.63374
2.762500	71.47804	20.63299
2.770833	71.64620	20.63218
2.779167	71.81665	20.63140
2.787500	71.97974	20.63069
2.795834	72.14580	20.63002
2.804166	72.31387	20.62935
2.812500	72.47751	20.62866
2.820834	72.64209	20.62795
2.829166	72.81096	20.62721
2.837500	72.97688	20.62645
2.845833	73.14452	20.62567
2.854167	73.31064	20.62499
2.862500	73.47637	20.62430
2.870834	73.64220	20.62360
2.879166	73.80320	20.62287
2.887500	73.97094	20.62213
2.895833	74.13478	20.62142
2.904167	74.29739	20.62072
2.912500	74.46228	20.61998
2.920834	74.62680	20.61924
2.929166	74.79044	20.61856
2.937500	74.95507	20.61789
2.945834	75.11928	20.61720
2.954166	75.28372	20.61649
2.962500	75.44744	20.61576
2.970833	75.61030	20.61501
2.979167	75.77438	20.61427
2.987500	75.93809	20.61352
2.995834	76.09586	20.61280
3.004166	76.27251	20.61209
3.012500	76.43506	20.61128
3.020833	76.58574	20.61038
3.029167	76.75191	20.60946
3.037500	76.91366	20.60850
3.045834	77.07650	20.60756
3.054166	77.23609	20.60674
3.062500	77.39918	20.60598
3.070834	77.55910	20.60525
3.079166	77.72208	20.60451
3.087500	77.88378	20.60378
3.095833	78.04780	20.60309
3.104167	78.20984	20.60242
3.112500	78.37010	20.60179
3.120834	78.53388	20.60122
3.129166	78.69311	20.60061
3.137500	78.85422	20.59994
3.145833	79.01220	20.59918
3.154167	79.17429	20.59840
3.162500	79.33525	20.59761
3.170834	79.50108	20.59680
3.179166	79.65886	20.59602
3.187500	79.82299	20.59530
3.195834	79.97912	20.59454
3.204167	80.14106	20.59374
3.212500	80.30293	20.59298
3.220833	80.46391	20.59221
3.229167	80.62416	20.59144
3.237500	80.78512	20.59068
3.245834	80.94206	20.58991
3.254166	81.10478	20.58917
3.262500	81.26270	20.58842
3.270833	81.42231	20.58762
3.279167	81.58470	20.58680
3.287500	81.74294	20.58604
3.295833	81.90593	20.58523
3.304166	82.08103	20.58440
3.312500	82.24081	20.58358
3.320834	82.39828	20.58278
3.329167	82.55958	20.58196
3.337500	82.71361	20.58114
3.345833	82.86710	20.58034
3.354167	83.02902	20.57955
3.362500	83.18586	20.57878
3.370834	83.34919	20.57798
3.379166	83.50429	20.57715
3.387500	83.66822	20.57634
3.395833	83.82603	20.57558
3.404167	83.98869	20.57477
3.412500	84.14316	20.57397
3.420833	84.30407	20.57315
3.429166	84.46072	20.57234
3.437500	84.62472	20.57156
3.445834	84.78184	20.57072
3.454167	84.93974	20.56990
3.462500	85.10032	20.56910
3.470833	85.25894	20.56828
3.479167	85.41530	20.56743
3.487500	85.57710	20.56659
3.495834	85.73921	20.56577
3.504166	85.89601	20.56494
3.512500	86.05772	20.56412
3.520833	86.22019	20.56329
3.529167	86.37672	20.56245
3.537500	86.53550	20.56159
3.545833	86.69335	20.56075
3.554166	86.85408	20.55986
3.562500	87.01331	20.55891
3.570834	87.18358	20.55804
3.579167	87.33504	20.55719
3.587500	87.49351	20.55629
3.595833	87.65411	20.55538
3.604167	87.81366	20.55449
3.612500	87.97191	20.55365
3.620834	88.13184	20.55282
3.629166	88.28918	20.55197
3.637500	88.44825	20.55117
3.645833	88.60918	20.55042
3.654167	88.76994	20.54958
3.662500	88.93112	20.54873
3.670833	89.09094	20.54796
3.679166	89.24540	20.54715
3.687500	89.41122	20.54629
3.695834	89.57075	20.54544
3.704167	89.72890	20.54457
3.712500	89.88884	20.54369
3.720833	90.04745	20.54280
3.729167	90.20840	20.54190
3.737500	90.36492	20.54099
3.745834	90.52505	20.54006
3.754166	90.68634	20.53920
3.762500	90.84381	20.53838
3.770833	91.00749	20.53752
3.779167	91.16379	20.53664
3.787500	91.32931	20.53577
3.795833	91.48576	20.53490
3.804166	91.64738	20.53400
3.812500	91.80418	20.53312
3.820834	91.96768	20.53225
3.829167	92.12647	20.53138
3.837500	92.28503	20.53040
3.845833	92.44648	20.52943
3.854167	92.60636	20.52852
3.862500	92.76516	20.52763
3.870834	92.92462	20.52677
3.879166	93.08715	20.52589
3.887500	93.24962	20.52501
3.895833	93.40982	20.52412
3.904167	93.56991	20.52324
3.912500	93.72847	20.52232
3.920833	93.88861	20.52139
3.929166	94.05128	20.52050
3.937500	94.20920	20.51966
3.945834	94.37118	20.51881
3.954167	94.53224	20.51789
3.962500	94.69124	20.51695
3.970833	94.85309	20.51605
3.979167	95.01408	20.51519
3.987500	95.17379	20.51428
3.995834	95.33541	20.51341
4.004166	95.49997	20.51254
4.012500	95.65759	20.51166
4.020834	95.82006	20.51074
4.029167	95.98181	20.50976
4.037500	96.13996	20.50885
4.045833	96.30134	20.50800
4.054167	96.46534	20.50713
4.062500	96.62866	20.50625
4.070833	96.79921	20.50534
4.079167	96.96149	20.50439
4.087500	97.12350	20.50344
4.095833	97.28399	20.50245
4.104166	97.44550	20.50148
4.112500	97.60884	20.50060
4.120834	97.76684	20.49971
4.129166	97.91859	20.49881
4.137500	98.07856	20.49786
4.145834	98.24262	20.49685
4.154167	98.40081	20.49589
4.162500	98.56574	20.49500
4.170833	98.72891	20.49414
4.179167	98.88934	20.49333
4.187500	99.04995	20.49250
4.195833	99.21902	20.49161
4.204167	99.37426	20.49066
4.212500	99.53947	20.48971
4.220833	99.70347	20.48880
4.229166	99.86274	20.48796
4.237500	100.0227	20.48716
4.245834	100.1878	20.48634
4.254166	100.3520	20.48547
4.262500	100.5152	20.48452
4.270834	100.6737	20.48352
4.279167	100.8467	20.48252
4.287500	101.0055	20.48156
4.295833	101.1648	20.48066
4.304167	101.3284	20.47979
4.312500	101.4900	20.47888
4.320833	101.6546	20.47792
4.329167	101.8172	20.47692
4.337500	101.9820	20.47589
4.345833	102.1445	20.47494
4.354166	102.3101	20.47401
4.362500	102.4718	20.47303
4.370834	102.6454	20.47207
4.379166	102.8067	20.47112
4.387500	102.9579	20.47009
4.395834	103.1252	20.46908
4.404167	103.2859	20.46807
4.412500	103.4488	20.46712
4.420833	103.6166	20.46623
4.429167	103.7784	20.46536
4.437500	103.9406	20.46449
4.445833	104.1055	20.46367
4.454167	104.2664	20.46284
4.462500	104.4313	20.46192
4.470833	104.5972	20.46100
4.479166	104.7594	20.46007
4.487500	104.9222	20.45914
4.495834	105.0888	20.45824
4.504166	105.2508	20.45730
4.512500	105.4132	20.45633
4.520834	105.5807	20.45532
4.529167	105.7436	20.45427
4.537500	105.9080	20.45325
4.545833	106.0708	20.45228
4.554167	106.2365	20.45137
4.562500	106.4008	20.45042
4.570833	106.5643	20.44939
4.579167	106.7297	20.44838
4.587500	106.8939	20.44741
4.595833	107.0576	20.44644
4.604166	107.2236	20.44547
4.612500	107.3848	20.44454
4.620834	107.5506	20.44361
4.629166	107.7192	20.44257
4.637500	107.8810	20.44150
4.645834	108.0625	20.44051
4.654167	108.2151	20.43964
4.662500	108.3746	20.43868
4.670833	108.5407	20.43767
4.679167	108.7097	20.43668
4.687500	108.8804	20.43574
4.695833	109.0356	20.43476
4.704167	109.2020	20.43368
4.712500	109.3669	20.43263
4.720833	109.5316	20.43164
4.729166	109.6940	20.43066
4.737500	109.8641	20.42966
4.745834	110.0260	20.42872
4.754166	110.1910	20.42775
4.762500	110.3571	20.42674
4.770834	110.5223	20.42570
4.779167	110.6920	20.42471
4.787500	110.8532	20.42379
4.795833	111.0178	20.42284
4.804167	111.1851	20.42179
4.812500	111.3529	20.42074
4.820833	111.5194	20.41973
4.829167	111.6840	20.41871
4.837500	111.8476	20.41772
4.845833	112.0146	20.41678
4.854166	112.1804	20.41583
4.862500	112.3459	20.41484
4.870834	112.5135	20.41384
4.879166	112.6796	20.41287
4.887500	112.8437	20.41194
4.895834	113.0084	20.41101
4.904167	113.1754	20.41004
4.912500	113.3447	20.40902
4.920833	113.5117	20.40799
4.929167	113.6729	20.40688
4.937500	113.8424	20.40571
4.945833	114.0112	20.40458
4.954167	114.1776	20.40353
4.962500	114.3422	20.40257
4.970833	114.5066	20.40160
4.979166	114.6734	20.40058
4.987500	114.8413	20.39947
4.995834	115.0078	20.39833
5.004166	115.1729	20.39724
5.012500	115.3404	20.39624
5.020834	115.5081	20.39530
5.029167	115.6695	20.39440
5.037500	115.8375	20.39340
5.045833	116.0020	20.39232
5.054167	116.1710	20.39121
5.062500	116.3372	20.39006
5.070833	116.5164	20.38898
5.079167	116.6841	20.38798
5.087500	116.8508	20.38700
5.095833	117.0107	20.38601
5.104166	117.1754	20.38501
5.112500	117.3386	20.38399
5.120834	117.5090	20.38299
5.129166	117.6730	20.38201
5.137500	117.8411	20.38104
5.145834	118.0086	20.38011
5.154167	118.1752	20.37916
5.162500	118.3401	20.37821
5.170833	118.5048	20.37720
5.179167	118.6724	20.37612
5.187500	118.8405	20.37501
5.195833	119.0098	20.37391
5.204167	119.1754	20.37290
5.212500	119.3419	20.37195
5.220833	119.5087	20.37097
5.229166	119.6750	20.36998
5.237500	119.8416	20.36897
5.245834	120.0079	20.36793
5.254166	120.1752	20.36692
5.262500	120.3405	20.36596
5.270834	120.5084	20.36508
5.279168	120.6772	20.36418
5.287500	120.8446	20.36317
5.295832	121.0120	20.36211
5.304168	121.1790	20.36105
5.312500	121.3456	20.36003
5.320832	121.5132	20.35904
5.329168	121.6829	20.35801
5.337500	121.8473	20.35695
5.345832	122.0170	20.35593
5.354166	122.1828	20.35483
5.362500	122.3512	20.35364
5.370834	122.5231	20.35249
5.379166	122.6954	20.35142
5.387500	122.8668	20.35039
5.395834	123.0290	20.34935
5.404168	123.1886	20.34833
5.412500	123.3563	20.34730
5.420832	123.5217	20.34628
5.429168	123.6885	20.34525
5.437500	123.8586	20.34423
5.445832	124.0239	20.34329
5.454168	124.1906	20.34235
5.462500	124.3576	20.34133
5.470832	124.5258	20.34032
5.479166	124.6913	20.33930
5.487500	124.8600	20.33823
5.495834	125.0284	20.33720
5.504166	125.1957	20.33618
5.512500	125.3651	20.33512
5.520834	125.5275	20.33410
5.529168	125.6960	20.33308
5.537500	125.8742	20.33204
5.545832	126.0371	20.33100
5.554168	126.2021	20.32994
5.562500	126.3712	20.32892
5.570832	126.5392	20.32791
5.579168	126.7011	20.32686
5.587500	126.8828	20.32579
5.595832	127.0529	20.32476
5.604166	127.2201	20.32375
5.612500	127.3900	20.32266
5.620834	127.5551	20.32156
5.629166	127.7225	20.32049
5.637500	127.8894	20.31942
5.645834	128.0595	20.31835
5.654168	128.2237	20.31728
5.662500	128.3824	20.31626
5.670832	128.5477	20.31526
5.679168	128.7270	20.31422
5.687500	128.8968	20.31314
5.695832	129.0652	20.31212
5.704168	129.2298	20.31110
5.712500	129.3998	20.31008
5.720832	129.5662	20.30905
5.729166	129.7357	20.30801
5.737500	129.8980	20.30698
5.745834	130.0598	20.30594
5.754166	130.2241	20.30486
5.762500	130.3936	20.30377
5.770834	130.5633	20.30271
5.779168	130.7290	20.30168
5.787500	130.8971	20.30062
5.795832	131.0634	20.29952
5.804168	131.2297	20.29838
5.812500	131.4003	20.29729
5.820832	131.5666	20.29621
5.829168	131.7334	20.29512
5.837500	131.9024	20.29407
5.845832	132.0682	20.29303
5.854166	132.2374	20.29196
5.862500	132.4052	20.29084
5.870834	132.5703	20.28974
5.879166	132.7384	20.28868
